#Rx
# X(m), Y(m), Z(m), Distance(m), Power (dBm) Phase (deg)
1 596.182 661.779 40.2026 0 -62.3109 91.8898
2 596.179 661.679 40.2092 0.1 -63.4646 114.741
3 596.176 661.579 40.2158 0.2 -68.4717 -34.9404
4 596.173 661.479 40.2224 0.3 -62.7494 -29.3791
5 596.17 661.379 40.229 0.4 -71.8146 -31.2646
6 596.167 661.279 40.2355 0.5 -70.4776 -163.77
7 596.163 661.179 40.2421 0.6 -64.0078 -137.386
8 596.16 661.08 40.2487 0.7 -74.0479 168.084
9 596.157 660.98 40.2553 0.8 -70.9349 95.7626
10 596.154 660.88 40.2619 0.9 -68.8458 122.253
11 596.151 660.78 40.2685 1 -76.2164 -45.5229
12 596.148 660.68 40.2751 1.1 -66.81 10.2022
13 596.145 660.58 40.2817 1.2 -78.6169 18.6208
14 596.142 660.48 40.2883 1.3 -72.5665 172.898
15 596.138 660.38 40.2949 1.4 -64.5273 -91.566
16 596.135 660.28 40.3015 1.5 -70.6666 -33.2796
17 596.132 660.18 40.3081 1.6 -71.7996 90.7008
18 596.129 660.08 40.3147 1.7 -63.0404 146.891
19 596.126 659.98 40.3213 1.8 -64.6501 -151.477
20 596.123 659.88 40.3279 1.9 -66.5164 10.7022
21 596.12 659.78 40.3345 2 -62.1686 24.2255
22 596.116 659.68 40.3411 2.1 -66.0661 83.4691
23 596.113 659.58 40.3477 2.2 -63.0278 -128.979
24 596.11 659.48 40.3543 2.3 -61.6056 -93.7188
25 596.107 659.38 40.3609 2.4 -72.2949 -74.1075
26 596.104 659.28 40.3675 2.5 -60.8853 97.8112
27 596.101 659.18 40.3741 2.6 -61.856 140.019
28 596.098 659.081 40.3806 2.7 -82.1635 -29.4259
29 596.094 658.981 40.3872 2.8 -61.1582 -32.2392
30 596.091 658.881 40.3938 2.9 -63.042 -7.77129
31 596.088 658.781 40.4004 3 -66.5164 177.027
32 596.085 658.681 40.407 3.1 -63.6117 -156.483
33 596.082 658.581 40.4136 3.2 -67.5019 -146.051
34 596.079 658.481 40.4202 3.3 -65.8979 42.8341
35 596.076 658.381 40.4268 3.4 -65.3437 69.4538
36 596.072 658.281 40.4334 3.5 -79.0637 -60.7433
37 596.069 658.181 40.44 3.6 -69.7567 -77.4492
38 596.066 658.081 40.4466 3.7 -68.3396 -56.5457
39 596.063 657.981 40.4532 3.8 -72.3102 149.992
40 596.06 657.881 40.4598 3.9 -68.5543 -172.028
41 596.057 657.781 40.4664 4 -78.0615 -72.9902
42 596.054 657.681 40.473 4.1 -72.1721 50.5614
43 596.05 657.581 40.4796 4.2 -65.3017 78.3635
44 596.047 657.481 40.4862 4.3 -77.532 -167.812
45 596.044 657.381 40.4928 4.4 -63.1237 -70.5011
46 596.041 657.281 40.4994 4.5 -66.9751 -42.6874
47 596.038 657.181 40.506 4.6 -77.3412 87.2728
48 596.035 657.082 40.5126 4.7 -59.7943 143.363
49 596.032 656.982 40.5192 4.8 -67.0895 -169.262
50 596.029 656.882 40.5257 4.9 -62.9558 -18.9599
51 596.025 656.782 40.5323 5 -61.9362 4.55831
52 596.022 656.682 40.5389 5.1 -76.1473 42.6538
53 596.019 656.582 40.5455 5.2 -59.4148 -169.079
54 596.016 656.482 40.5521 5.3 -62.8283 -142.782
55 596.013 656.382 40.5587 5.4 -65.5847 29.3899
56 596.01 656.282 40.5653 5.5 -61.8026 39.0722
57 596.007 656.182 40.5719 5.6 -66.6747 84.2583
58 596.003 656.082 40.5785 5.7 -62.9344 -128.667
59 596 655.982 40.5851 5.8 -63.8099 -89.3798
60 595.997 655.882 40.5917 5.9 -80.6419 98.3167
61 595.994 655.782 40.5983 6 -64.6985 75.4943
62 595.991 655.682 40.6049 6.1 -64.9328 118.111
63 595.988 655.582 40.6115 6.2 -66.9886 -63.597
64 595.985 655.482 40.6181 6.3 -65.8727 -33.6879
65 595.981 655.382 40.6247 6.4 -74.2706 -161.527
66 595.978 655.282 40.6313 6.5 -72.0045 115.171
67 595.975 655.182 40.6379 6.6 -71.5095 -129.895
68 595.972 655.082 40.6445 6.7 -71.5219 -26.1208
69 595.969 654.983 40.6511 6.8 -66.377 80.1072
70 595.966 654.883 40.6577 6.9 -82.6944 -83.6233
71 595.963 654.783 40.6643 7 -65.6149 -112.318
72 595.959 654.683 40.6708 7.1 -64.8734 -105.095
73 595.956 654.583 40.6774 7.2 -65.7409 68.1157
74 595.953 654.483 40.684 7.3 -60.838 104.508
75 595.95 654.383 40.6906 7.4 -79.6289 -176.29
76 595.947 654.283 40.6972 7.5 -64.11 -77.7716
77 595.944 654.183 40.7038 7.6 -61.5853 -61.9458
78 595.941 654.083 40.7104 7.7 -66.5719 84.4746
79 595.937 653.983 40.717 7.8 -59.3647 123.073
80 595.934 653.883 40.7236 7.9 -73.7459 169.137
81 595.931 653.783 40.7302 8 -61.5515 -61.6729
82 595.928 653.683 40.7368 8.1 -63.6203 -53.7996
83 595.925 653.583 40.7434 8.2 -64.6514 89.478
84 595.922 653.483 40.75 8.3 -61.926 130.258
85 595.919 653.383 40.7566 8.4 -74.5654 -152.49
86 595.916 653.283 40.7632 8.5 -62.7407 -46.7682
87 595.912 653.183 40.7698 8.6 -66.1131 -52.6237
88 595.909 653.083 40.7764 8.7 -68.4015 123.008
89 595.906 652.984 40.783 8.8 -62.1165 159.601
90 595.903 652.884 40.7896 8.9 -77.3949 165.019
91 595.9 652.784 40.7962 9 -65.331 14.6115
92 595.897 652.684 40.8028 9.1 -67.7371 -8.20814
93 595.894 652.584 40.8094 9.2 -64.982 -125.132
94 595.89 652.484 40.8159 9.3 -66.3095 -175.524
95 595.887 652.384 40.8225 9.4 -74.2664 107.644
96 595.884 652.284 40.8291 9.5 -61.4516 39.5847
97 595.881 652.184 40.8357 9.6 -63.1058 147.381
98 595.878 652.084 40.8423 9.7 -75.1474 -135.458
99 595.875 651.984 40.8489 9.8 -69.0616 -68.5659
100 595.872 651.884 40.8555 9.9 -64.6758 -42.919
101 595.868 651.784 40.8621 10 -63.2541 66.2087
102 595.865 651.684 40.8687 10.1 -62.8896 145.8
103 595.862 651.584 40.8753 10.2 -66.0781 -135.155
104 595.859 651.484 40.8819 10.3 -64.8999 -71.0396
105 595.856 651.384 40.8885 10.4 -66.2363 -8.50188
106 595.853 651.284 40.8951 10.5 -65.8278 57.9077
107 595.85 651.184 40.9017 10.6 -62.0727 114.52
108 595.846 651.084 40.9083 10.7 -60.5392 -140.968
109 595.843 650.985 40.9149 10.8 -62.7946 -57.5156
110 595.84 650.885 40.9215 10.9 -66.2926 37.2686
111 595.837 650.785 40.9281 11 -85.1785 4.48635
112 595.834 650.685 40.9347 11.1 -65.1632 86.7101
113 595.831 650.585 40.9413 11.2 -61.7243 -160.055
114 595.828 650.485 40.9479 11.3 -63.9232 -54.8948
115 595.824 650.385 40.9545 11.4 -66.2241 49.7503
116 595.821 650.285 40.961 11.5 -72.163 162.895
117 595.818 650.185 40.9676 11.6 -86.8197 -81.8518
118 595.815 650.085 40.9742 11.7 -76.0563 149.381
119 595.812 649.985 40.9808 11.8 -66.8735 -35.2246
120 595.809 649.885 40.9874 11.9 -68.408 97.4309
121 595.806 649.785 40.994 12 -74.7123 140.981
122 595.803 649.685 41.0006 12.1 -67.925 -132.508
123 595.799 649.585 41.0072 12.2 -66.1034 -68.5426
124 595.796 649.485 41.0138 12.3 -63.8412 18.6635
125 595.793 649.385 41.0204 12.4 -64.7673 99.79
126 595.79 649.285 41.027 12.5 -62.2287 177.13
127 595.787 649.185 41.0336 12.6 -67.4141 -87.8934
128 595.784 649.085 41.0402 12.7 -69.3425 -82.206
129 595.781 648.986 41.0468 12.8 -65.5092 -7.88663
130 595.777 648.886 41.0534 12.9 -61.5008 62.2793
131 595.774 648.786 41.06 13 -62.3104 152.475
132 595.771 648.686 41.0666 13.1 -63.5796 -138.044
133 595.768 648.586 41.0732 13.2 -63.8219 -50.1674
134 595.765 648.486 41.0798 13.3 -69.7227 -11.9508
135 595.762 648.386 41.0864 13.4 -67.8205 56.2547
136 595.759 648.286 41.093 13.5 -67.637 111.225
137 595.755 648.186 41.0996 13.6 -63.4887 -163.385
138 595.752 648.086 41.1061 13.7 -66.9783 -74.6651
139 595.749 647.986 41.1127 13.8 -65.8711 7.67084
140 595.746 647.886 41.1193 13.9 -67.5465 117.457
141 595.743 647.786 41.1259 14 -73.3475 -154.935
142 595.74 647.686 41.1325 14.1 -71.2217 -54.0344
143 595.737 647.586 41.1391 14.2 -82.6705 30.0597
144 595.733 647.486 41.1457 14.3 -70.9608 44.5881
145 595.73 647.386 41.1523 14.4 -72.6658 144.886
146 595.727 647.286 41.1589 14.5 -67.5276 -175.818
147 595.724 647.186 41.1655 14.6 -66.5349 -91.9177
148 595.721 647.086 41.1721 14.7 -64.3563 -32.3417
149 595.718 646.986 41.1787 14.8 -63.3461 60.8795
150 595.715 646.887 41.1853 14.9 -64.8767 116.684
151 595.711 646.787 41.1919 15 -64.9335 -170.889
152 595.708 646.687 41.1985 15.1 -66.0924 -127.374
153 595.705 646.587 41.2051 15.2 -62.6941 -50.2473
154 595.702 646.487 41.2117 15.3 -63.82 13.6806
155 595.699 646.387 41.2183 15.4 -62.9207 83.5777
156 595.696 646.287 41.2249 15.5 -65.5444 156.715
157 595.693 646.187 41.2315 15.6 -63.2134 -143.819
158 595.69 646.087 41.2381 15.7 -66.0851 -66.8812
159 595.686 645.987 41.2447 15.8 -67.0599 -0.65399
160 595.683 645.887 41.2512 15.9 -69.5174 95.4544
161 595.68 645.787 41.2578 16 -72.2824 92.5861
162 595.677 645.687 41.2644 16.1 -75.7687 170.849
163 595.674 645.587 41.271 16.2 -70.2745 -138.88
164 595.671 645.487 41.2776 16.3 -67.7307 -33.6648
165 595.668 645.387 41.2842 16.4 -71.0327 47.9091
166 595.664 645.287 41.2908 16.5 -67.1494 148.584
167 595.661 645.187 41.2974 16.6 -67.9773 -125.965
168 595.658 645.087 41.304 16.7 -67.1123 -65.8879
169 595.655 644.987 41.3106 16.8 -65.6686 17.6782
170 595.652 644.888 41.3172 16.9 -63.629 66.056
171 595.649 644.788 41.3238 17 -62.3128 143.394
172 595.646 644.688 41.3304 17.1 -61.9447 -151.725
173 595.642 644.588 41.337 17.2 -60.2013 -77.2779
174 595.639 644.488 41.3436 17.3 -62.1462 -14.9314
175 595.636 644.388 41.3502 17.4 -61.3039 59.6035
176 595.633 644.288 41.3568 17.5 -63.5112 124.892
177 595.63 644.188 41.3634 17.6 -62.9276 -179.081
178 595.627 644.088 41.37 17.7 -65.3378 -112.767
179 595.624 643.988 41.3766 17.8 -63.4651 -50.9679
180 595.62 643.888 41.3832 17.9 -65.9527 10.3626
181 595.617 643.788 41.3898 18 -65.6401 72.1198
182 595.614 643.688 41.3963 18.1 -67.5349 160.745
183 595.611 643.588 41.4029 18.2 -68.4721 -146.151
184 595.608 643.488 41.4095 18.3 -70.0498 -53.9368
185 595.605 643.388 41.4161 18.4 -71.4769 13.6017
186 595.602 643.288 41.4227 18.5 -69.654 91.7651
187 595.598 643.188 41.4293 18.6 -72.9333 159.381
188 595.595 643.088 41.4359 18.7 -67.9441 -127.041
189 595.592 642.988 41.4425 18.8 -68.3728 -59.4782
190 595.589 642.889 41.4491 18.9 -66.0503 -2.6507
191 595.586 642.789 41.4557 19 -66.3783 66.1287
192 595.583 642.689 41.4623 19.1 -64.2034 119.819
193 595.58 642.589 41.4689 19.2 -64.2833 -172.232
194 595.576 642.489 41.4755 19.3 -62.9499 -118.327
195 595.573 642.389 41.4821 19.4 -62.628 -48.6462
196 595.57 642.289 41.4887 19.5 -62.1055 2.85574
197 595.567 642.189 41.4953 19.6 -62.5804 70.2362
198 595.564 642.089 41.5019 19.7 -62.5637 128.705
199 595.561 641.989 41.5085 19.8 -61.9573 -165.231
200 595.558 641.889 41.5151 19.9 -63.4215 -118.236
201 595.555 641.789 41.5217 20 -64.0804 -47.1142
202 595.551 641.689 41.5283 20.1 -63.3183 1.63899
203 595.548 641.589 41.5348 20.2 -65.0043 63.5433
204 595.545 641.489 41.5414 20.3 -68.3785 122.846
205 595.542 641.389 41.548 20.4 -68.5869 -163.289
206 595.539 641.289 41.5546 20.5 -72.9221 -123.594
207 595.536 641.189 41.5612 20.6 -73.3312 20.3918
208 595.533 641.089 41.5678 20.7 -69.7636 78.1607
209 595.529 640.989 41.5744 20.8 -69.0019 152.255
210 595.526 640.889 41.581 20.9 -64.8798 -141.654
211 595.523 640.79 41.5876 21 -63.0568 -99.5048
212 595.52 640.69 41.5942 21.1 -64.2242 -46.2824
213 595.517 640.59 41.6008 21.2 -63.4286 17.7006
214 595.514 640.49 41.6074 21.3 -62.6845 60.6316
215 595.511 640.39 41.614 21.4 -66.9737 111.128
216 595.507 640.29 41.6206 21.5 -66.8264 -162.159
217 595.504 640.19 41.6272 21.6 -66.484 -109.768
218 595.501 640.09 41.6338 21.7 -68.2614 -31.0148
219 595.498 639.99 41.6404 21.8 -63.7903 38.929
220 595.495 639.89 41.647 21.9 -62.7129 74.7074
221 595.492 639.79 41.6536 22 -64.821 124.157
222 595.489 639.69 41.6602 22.1 -64.4463 -176.491
223 595.485 639.59 41.6668 22.2 -64.4732 -140.592
224 595.482 639.49 41.6734 22.3 -74.9432 -99.1133
225 595.479 639.39 41.6799 22.4 -71.435 36.4054
226 595.476 639.29 41.6865 22.5 -72.362 98.2917
227 595.473 639.19 41.6931 22.6 -68.9379 179.16
228 595.47 639.09 41.6997 22.7 -65.7519 -131.786
229 595.467 638.99 41.7063 22.8 -69.094 -96.973
230 595.463 638.89 41.7129 22.9 -68.9777 8.74946
231 595.46 638.791 41.7195 23 -65.9655 61.3595
232 595.457 638.691 41.7261 23.1 -64.6874 122.816
233 595.454 638.591 41.7327 23.2 -62.7186 179.329
234 595.451 638.491 41.7393 23.3 -61.4235 -141.095
235 595.448 638.391 41.7459 23.4 -62.3679 -97.0946
236 595.445 638.291 41.7525 23.5 -64.4359 -34.9485
237 595.442 638.191 41.7591 23.6 -62.7984 16.4949
238 595.438 638.091 41.7657 23.7 -65.2457 74.88
239 595.435 637.991 41.7723 23.8 -63.2937 134.983
240 595.432 637.891 41.7789 23.9 -69.3486 157.344
241 595.429 637.791 41.7855 24 -64.4605 -109.113
242 595.426 637.691 41.7921 24.1 -63.5812 -79.1926
243 595.423 637.591 41.7987 24.2 -76.3226 -52.8672
244 595.42 637.491 41.8053 24.3 -66.108 107.243
245 595.416 637.391 41.8119 24.4 -66.9452 85.6278
246 595.413 637.291 41.8185 24.5 -74.2155 -136.138
247 595.41 637.191 41.825 24.6 -63.8205 -100.984
248 595.407 637.091 41.8316 24.7 -77.6196 -51.0491
249 595.404 636.991 41.8382 24.8 -65.7255 53.0311
250 595.401 636.891 41.8448 24.9 -60.0543 74.6188
251 595.398 636.792 41.8514 25 -68.8597 96.2841
252 595.394 636.692 41.858 25.1 -64.5589 -158.39
253 595.391 636.592 41.8646 25.2 -61.4153 -136.367
254 595.388 636.492 41.8712 25.3 -64.5718 -64.0936
255 595.385 636.392 41.8778 25.4 -61.5669 -24.0632
256 595.382 636.292 41.8844 25.5 -61.9432 -9.147
257 595.379 636.192 41.891 25.6 -67.0234 61.8277
258 595.376 636.092 41.8976 25.7 -61.3455 163.624
259 595.372 635.992 41.9042 25.8 -61.6396 147.804
260 595.369 635.892 41.9108 25.9 -71.557 151.231
261 595.366 635.792 41.9174 26 -64.1987 -37.8001
262 595.363 635.692 41.924 26.1 -66.2968 -29.7449
263 595.36 635.592 41.9306 26.2 -89.9622 91.5477
264 595.357 635.492 41.9372 26.3 -67.7419 116.648
265 595.354 635.392 41.9438 26.4 -73.7232 -159.993
266 595.35 635.292 41.9504 26.5 -63.0006 -101.659
267 595.347 635.192 41.957 26.6 -67.7263 -110.76
268 595.344 635.092 41.9636 26.7 -67.7115 32.755
269 595.341 634.992 41.9701 26.8 -58.8672 37.5783
270 595.338 634.892 41.9767 26.9 -64.7624 45.5998
271 595.335 634.793 41.9833 27 -65.673 -170.934
272 595.332 634.693 41.9899 27.1 -58.8397 170.209
273 595.329 634.593 41.9965 27.2 -63.8978 -176.02
274 595.325 634.493 42.0031 27.3 -62.7268 -51.7249
275 595.322 634.393 42.0097 27.4 -62.3229 -52.6864
276 595.319 634.293 42.0163 27.5 -69.5673 -37.1202
277 595.316 634.193 42.0229 27.6 -65.0104 61.6171
278 595.313 634.093 42.0295 27.7 -65.2306 85.1927
279 595.31 633.993 42.0361 27.8 -72.163 -156.422
280 595.307 633.893 42.0427 27.9 -68.6357 -137.792
281 595.303 633.793 42.0493 28 -82.9269 122.926
282 595.3 633.693 42.0559 28.1 -66.5796 -17.944
283 595.297 633.593 42.0625 28.2 -67.8366 12.7343
284 595.294 633.493 42.0691 28.3 -64.7292 119.418
285 595.291 633.393 42.0757 28.4 -64.5183 139.989
286 595.288 633.293 42.0823 28.5 -67.6885 174.404
287 595.285 633.193 42.0889 28.6 -64.0573 -121.751
288 595.281 633.093 42.0955 28.7 -60.4408 -97.7821
289 595.278 632.993 42.1021 28.8 -65.1383 -43.8586
290 595.275 632.893 42.1087 28.9 -60.9211 15.2586
291 595.272 632.793 42.1152 29 -64.4172 23.5875
292 595.269 632.694 42.1218 29.1 -65.7727 91.8153
293 595.266 632.594 42.1284 29.2 -63.5166 124.56
294 595.263 632.494 42.135 29.3 -65.353 169.255
295 595.259 632.394 42.1416 29.4 -69.3858 -123.37
296 595.256 632.294 42.1482 29.5 -66.3269 -70.3123
297 595.253 632.194 42.1548 29.6 -81.3584 -41.7297
298 595.25 632.094 42.1614 29.7 -66.6382 59.0882
299 595.247 631.994 42.168 29.8 -71.7463 63.2651
300 595.258 631.896 42.1739 29.9 -72.4832 -9.5083
301 595.284 631.799 42.1791 30 -67.5817 47.79
302 595.309 631.702 42.1843 30.1 -62.4748 151.946
303 595.334 631.605 42.1895 30.2 -61.4943 -152.434
304 595.36 631.509 42.1947 30.3 -61.1428 -69.2087
305 595.385 631.412 42.1999 30.4 -64.4589 39.0738
306 595.411 631.315 42.2051 30.5 -67.0021 61.6163
307 595.436 631.219 42.2103 30.6 -59.0956 116.691
308 595.462 631.122 42.2155 30.7 -61.7659 -144.185
309 595.487 631.025 42.2207 30.8 -67.9266 -56.0252
310 595.513 630.928 42.2259 30.9 -66.1652 -2.06403
311 595.538 630.832 42.2311 31 -64.5229 28.876
312 595.564 630.735 42.2363 31.1 -64.6681 86.7327
313 595.589 630.638 42.2415 31.2 -64.5054 -162.936
314 595.614 630.542 42.2467 31.3 -63.1613 -50.1011
315 595.64 630.445 42.2519 31.4 -74.6948 54.748
316 595.665 630.348 42.2571 31.5 -73.2961 -65.5229
317 595.691 630.252 42.2623 31.6 -68.6925 105.655
318 595.716 630.155 42.2675 31.7 -61.421 -155.66
319 595.742 630.058 42.2727 31.8 -62.5399 -95.6349
320 595.767 629.961 42.2779 31.9 -65.9852 -36.8512
321 595.793 629.865 42.2831 32 -66.1525 31.6769
322 595.818 629.768 42.2883 32.1 -64.1381 85.3819
323 595.843 629.671 42.2935 32.2 -63.4415 111.116
324 595.869 629.575 42.2986 32.3 -62.6375 166.935
325 595.894 629.478 42.3038 32.4 -65.3898 -122.528
326 595.92 629.381 42.309 32.5 -68.6027 -45.5111
327 595.945 629.284 42.3142 32.6 -64.3579 -9.39813
328 595.971 629.188 42.3194 32.7 -62.2985 37.2047
329 595.996 629.091 42.3246 32.8 -64.0579 97.8702
330 596.022 628.994 42.3298 32.9 -72.9568 156.503
331 596.047 628.898 42.335 33 -69.5502 -177.612
332 596.073 628.801 42.3402 33.1 -62.5153 -131.608
333 596.098 628.704 42.3454 33.2 -60.1596 -65.4186
334 596.123 628.608 42.3506 33.3 -63.8161 2.48731
335 596.149 628.511 42.3558 33.4 -73.21 111.458
336 596.174 628.414 42.361 33.5 -77.8644 -24.9897
337 596.2 628.317 42.3662 33.6 -65.0421 78.099
338 596.225 628.221 42.3714 33.7 -59.7941 142.1
339 596.251 628.124 42.3766 33.8 -61.4251 -166.054
340 596.276 628.027 42.3818 33.9 -68.5466 -100.829
341 596.302 627.931 42.387 34 -83.9724 -134.729
342 596.327 627.834 42.3922 34.1 -67.1967 -81.0481
343 596.352 627.737 42.3974 34.2 -60.6545 -29.4676
344 596.378 627.64 42.4026 34.3 -59.2663 23.272
345 596.403 627.544 42.4078 34.4 -61.6272 72.7841
346 596.429 627.447 42.413 34.5 -71.1929 125.34
347 596.454 627.35 42.4182 34.6 -83.5318 76.1072
348 596.48 627.254 42.4234 34.7 -67.8524 117.639
349 596.505 627.157 42.4286 34.8 -64.6168 175.261
350 596.531 627.06 42.4338 34.9 -62.4273 -143.689
351 596.556 626.963 42.439 35 -63.8251 -129.122
352 596.581 626.867 42.4442 35.1 -64.9692 -121.968
353 596.607 626.77 42.4494 35.2 -63.7046 -92.3448
354 596.632 626.673 42.4546 35.3 -65.3362 -42.3057
355 596.658 626.577 42.4598 35.4 -66.3311 7.58393
356 596.683 626.48 42.465 35.5 -69.4053 -0.0626342
357 596.709 626.383 42.4702 35.6 -65.7764 -1.0289
358 596.734 626.287 42.4754 35.7 -61.6021 22.7432
359 596.76 626.19 42.4806 35.8 -60.4446 42.5218
360 596.785 626.093 42.4858 35.9 -62.6052 71.3611
361 596.811 625.996 42.491 36 -65.3071 111.012
362 596.836 625.9 42.4962 36.1 -74.9737 130.576
363 596.861 625.803 42.5014 36.2 -73.3527 27.8163
364 596.887 625.706 42.5066 36.3 -65.4986 82.3351
365 596.912 625.61 42.5118 36.4 -61.5426 134.552
366 596.938 625.513 42.517 36.5 -63.1915 144.221
367 596.963 625.416 42.5221 36.6 -69.8448 138.029
368 597.026 625.348 42.5239 36.7 -63.8061 -40.2817
369 597.114 625.3 42.5234 36.8 -78.3033 -44.2062
370 597.201 625.252 42.5229 36.9 -63.127 38.1334
371 597.289 625.204 42.5223 37 -70.1689 21.6731
372 597.377 625.156 42.5218 37.1 -63.9725 87.6493
373 597.464 625.108 42.5213 37.2 -60.83 48.7945
374 597.552 625.06 42.5207 37.3 -64.5955 80.7335
375 597.64 625.012 42.5202 37.4 -60.5539 63.5858
376 597.727 624.964 42.5197 37.5 -64.9308 46.8961
377 597.815 624.916 42.5191 37.6 -62.0655 41.6807
378 597.903 624.867 42.5186 37.7 -67.4994 7.84375
379 597.99 624.819 42.5181 37.8 -64.8055 39.0893
380 598.078 624.771 42.5175 37.9 -64.2295 -32.7869
381 598.166 624.723 42.517 38 -66.0729 50.6474
382 598.253 624.675 42.5165 38.1 -62.7945 -64.0146
383 598.341 624.627 42.516 38.2 -65.4275 -43.06
384 598.429 624.579 42.5154 38.3 -63.6317 -103.2
385 598.516 624.531 42.5149 38.4 -63.1437 -149.842
386 598.604 624.483 42.5144 38.5 -61.6244 156.251
387 598.692 624.434 42.5138 38.6 -64.8808 96.2223
388 598.779 624.386 42.5133 38.7 -62.6405 42.915
389 598.867 624.338 42.5128 38.8 -62.9654 -36.9012
390 598.955 624.29 42.5122 38.9 -68.748 -138.678
391 599.042 624.242 42.5117 39 -65.2211 -128.53
392 599.13 624.194 42.5112 39.1 -62.7902 104.291
393 599.218 624.146 42.5106 39.2 -75.2111 140.009
394 599.305 624.098 42.5101 39.3 -61.4318 -10.0045
395 599.393 624.05 42.5096 39.4 -68.3499 -114.715
396 599.481 624.002 42.509 39.5 -62.0484 176.708
397 599.568 623.953 42.5085 39.6 -63.5311 34.1393
398 599.656 623.905 42.508 39.7 -64.39 -16.3037
399 599.744 623.857 42.5075 39.8 -58.7431 -155.097
400 599.831 623.809 42.5069 39.9 -62.6781 46.9997
401 599.919 623.761 42.5064 40 -68.7822 -1.3361
402 600.007 623.713 42.5059 40.1 -63.3786 -152.371
403 600.094 623.665 42.5053 40.2 -68.2762 92.0558
404 600.182 623.617 42.5048 40.3 -64.9756 -47.8269
405 600.27 623.569 42.5043 40.4 -72.5203 156.424
